# XCENTER YCENTER       SKY SKYSIGMA    FWHM   COUNTS     MAG
   193.56  872.83       7.8     4.45    5.65  26573.0 -11.061
    73.79  926.67       7.2     4.00    5.29  12646.6 -10.255
   779.89  726.86      15.8     7.01    5.97  67902.7 -12.080
   999.93  817.65      14.4     6.99    5.57 129463.7 -12.780
   785.95   27.17      11.3     5.81    6.62  68148.5 -12.084
   541.29   83.83      11.6     5.77    6.58  69009.7 -12.097
   185.87   43.91       7.8     4.52    6.02  22872.0 -10.898
   599.86  297.39       8.8     4.62    6.27   5396.5  -9.330
   470.39  391.77      12.0     5.63    6.18  60363.8 -11.952
    21.12  303.24      13.8     6.07    6.00  52125.7 -11.793
    53.37  456.53       7.6     4.18    5.40  22993.3 -10.904
    99.65  805.86       6.0     3.97    5.29   2183.7  -8.348

