# XCENTER YCENTER       SKY SKYSIGMA    FWHM   COUNTS     MAG
   220.44  585.91      11.5     5.25    5.51  70161.8 -12.115
   231.94  713.83      12.6     6.20    5.44  66651.4 -12.060
   528.57  527.19      13.7     5.82    5.77  59875.7 -11.943
   798.29  552.05      10.8     5.49    6.05  49079.6 -11.727
   999.90  817.78      13.3     6.46    5.33 127257.3 -12.762
   768.64   74.51       7.6     4.35    6.60  22267.7 -10.869
   913.30  143.85       7.3     4.29    6.50  15039.6 -10.443
   186.01   44.09       7.7     4.50    6.09  23759.4 -10.940

