# XCENTER YCENTER       SKY SKYSIGMA    FWHM   COUNTS     MAG
   591.55  658.09     120.7    10.09    4.55  55638.6 -11.863
   576.20  613.75     116.2     8.77    5.19   6020.8  -9.449
   605.39  511.88     116.8     8.97    5.41  13861.2 -10.355
   520.07  379.11     115.3     8.94    5.89   4736.7  -9.189
   347.37  720.38     117.4     9.05    4.82   8998.0  -9.885
   266.07  610.56     116.2     8.90    4.75   3829.3  -8.958

