# XCENTER YCENTER       SKY SKYSIGMA    FWHM   COUNTS     MAG
   292.77  703.10      90.6     9.73    5.83  96450.8 -12.461
   616.77  511.83      88.3     9.91    5.62  58962.8 -11.926
   608.66  567.84      81.9     7.13    6.30   7636.1  -9.707
   624.06  696.76      81.2     7.43    5.41   1633.7  -8.033
   486.75  351.15      81.0     7.53    6.19   6138.5  -9.470
   310.79  324.43      80.8     7.03    5.74   1073.5  -7.577

