# XCENTER YCENTER       SKY SKYSIGMA    FWHM   COUNTS     MAG
   297.01  530.60     144.0    12.63    5.14 231178.8 -13.410
   466.49  559.31     130.6     8.84    5.45  22735.6 -10.892
   473.96  496.89     129.3     9.12    4.98   5875.4  -9.423
   604.93  358.82     129.6     8.25    5.42   1949.0  -8.225
   719.07  390.05     128.5     8.81    5.77   4023.8  -9.012
   642.94  310.49     131.0     8.73    6.00   1850.0  -8.168
   604.98  358.75     129.5     8.28    5.37   1982.4  -8.243
   463.66  329.38     132.2     8.99    4.19    768.0  -7.213
   303.90  604.56     129.7     9.02    4.86   1266.4  -7.756

