# XCENTER YCENTER       SKY SKYSIGMA    FWHM   COUNTS     MAG
   440.24  599.33     379.9    22.43    5.91 269619.9 -13.577
   389.63  549.83     365.6    15.40    5.64  68058.0 -12.082
   582.17  658.06     355.0    14.14    6.01  28383.6 -11.133
   704.36  687.33     349.6    14.11    5.65   2329.1  -8.418
   735.58  514.74     349.9    14.54    4.36   1686.3  -8.067
   721.08  489.13     350.3    13.84    5.91   3239.5  -8.776
   471.11  393.47     358.5    14.50    6.19   4518.1  -9.137

