# XCENTER YCENTER       SKY SKYSIGMA    FWHM   COUNTS     MAG
   292.96  703.47     155.0    11.93    5.34 110285.7 -12.606
   624.26  696.94     142.9     9.09    5.58   2633.6  -8.551
   608.87  568.07     144.7     9.21    6.00   9357.2  -9.928
   617.03  512.24     152.4    11.67    5.94  77708.5 -12.226
   553.45  496.34     143.2     9.39    5.72   1158.9  -7.660
   550.23  339.82     145.6     9.38    5.63  15064.5 -10.445
   487.01  351.48     145.0     9.17    5.61   8255.1  -9.792
